# E (eV)  dosup(E)   dosdw(E)  pdosup(E)  pdosdw(E)
  13.000  0.133E+00  0.108E+00  0.132E+00  0.108E+00
  13.020  0.141E+00  0.103E+00  0.140E+00  0.103E+00
  13.040  0.154E+00  0.981E-01  0.154E+00  0.978E-01
  13.060  0.176E+00  0.920E-01  0.175E+00  0.918E-01
  13.080  0.204E+00  0.856E-01  0.203E+00  0.854E-01
  13.100  0.239E+00  0.795E-01  0.238E+00  0.793E-01
  13.120  0.280E+00  0.743E-01  0.278E+00  0.741E-01
  13.140  0.324E+00  0.706E-01  0.322E+00  0.705E-01
  13.160  0.369E+00  0.691E-01  0.367E+00  0.689E-01
  13.180  0.414E+00  0.696E-01  0.411E+00  0.694E-01
  13.200  0.454E+00  0.721E-01  0.452E+00  0.719E-01
  13.220  0.489E+00  0.760E-01  0.487E+00  0.758E-01
  13.240  0.517E+00  0.806E-01  0.514E+00  0.803E-01
  13.260  0.537E+00  0.849E-01  0.534E+00  0.847E-01
  13.280  0.550E+00  0.883E-01  0.546E+00  0.880E-01
  13.300  0.556E+00  0.901E-01  0.552E+00  0.898E-01
  13.320  0.556E+00  0.901E-01  0.552E+00  0.898E-01
  13.340  0.554E+00  0.884E-01  0.550E+00  0.881E-01
  13.360  0.551E+00  0.854E-01  0.546E+00  0.851E-01
  13.380  0.548E+00  0.819E-01  0.543E+00  0.816E-01
  13.400  0.547E+00  0.787E-01  0.541E+00  0.785E-01
  13.420  0.547E+00  0.769E-01  0.540E+00  0.766E-01
  13.440  0.547E+00  0.772E-01  0.541E+00  0.769E-01
  13.460  0.548E+00  0.801E-01  0.541E+00  0.798E-01
  13.480  0.548E+00  0.858E-01  0.541E+00  0.855E-01
  13.500  0.547E+00  0.940E-01  0.540E+00  0.937E-01
  13.520  0.546E+00  0.104E+00  0.539E+00  0.104E+00
  13.540  0.546E+00  0.115E+00  0.539E+00  0.115E+00
  13.560  0.550E+00  0.126E+00  0.542E+00  0.126E+00
  13.580  0.558E+00  0.136E+00  0.551E+00  0.136E+00
  13.600  0.573E+00  0.144E+00  0.566E+00  0.144E+00
  13.620  0.596E+00  0.150E+00  0.589E+00  0.149E+00
  13.640  0.628E+00  0.154E+00  0.620E+00  0.153E+00
  13.660  0.665E+00  0.156E+00  0.657E+00  0.156E+00
  13.680  0.708E+00  0.158E+00  0.699E+00  0.158E+00
  13.700  0.752E+00  0.162E+00  0.743E+00  0.161E+00
  13.720  0.794E+00  0.166E+00  0.785E+00  0.166E+00
  13.740  0.833E+00  0.173E+00  0.823E+00  0.172E+00
  13.760  0.866E+00  0.181E+00  0.856E+00  0.180E+00
  13.780  0.893E+00  0.190E+00  0.882E+00  0.189E+00
  13.800  0.912E+00  0.199E+00  0.900E+00  0.199E+00
  13.820  0.925E+00  0.207E+00  0.913E+00  0.206E+00
  13.840  0.931E+00  0.212E+00  0.919E+00  0.211E+00
  13.860  0.932E+00  0.214E+00  0.919E+00  0.213E+00
  13.880  0.929E+00  0.212E+00  0.915E+00  0.211E+00
  13.900  0.921E+00  0.205E+00  0.908E+00  0.204E+00
  13.920  0.912E+00  0.195E+00  0.898E+00  0.194E+00
  13.940  0.900E+00  0.182E+00  0.887E+00  0.181E+00
  13.960  0.888E+00  0.166E+00  0.874E+00  0.165E+00
  13.980  0.875E+00  0.151E+00  0.862E+00  0.150E+00
  14.000  0.862E+00  0.136E+00  0.849E+00  0.135E+00
  14.020  0.848E+00  0.123E+00  0.835E+00  0.123E+00
  14.040  0.833E+00  0.114E+00  0.820E+00  0.114E+00
  14.060  0.815E+00  0.110E+00  0.802E+00  0.109E+00
  14.080  0.793E+00  0.110E+00  0.781E+00  0.110E+00
  14.100  0.768E+00  0.115E+00  0.757E+00  0.115E+00
  14.120  0.741E+00  0.124E+00  0.730E+00  0.123E+00
  14.140  0.711E+00  0.135E+00  0.700E+00  0.134E+00
  14.160  0.681E+00  0.147E+00  0.670E+00  0.146E+00
  14.180  0.651E+00  0.159E+00  0.641E+00  0.158E+00
  14.200  0.624E+00  0.168E+00  0.614E+00  0.167E+00
  14.220  0.600E+00  0.175E+00  0.589E+00  0.174E+00
  14.240  0.579E+00  0.180E+00  0.568E+00  0.179E+00
  14.260  0.561E+00  0.183E+00  0.550E+00  0.182E+00
  14.280  0.546E+00  0.186E+00  0.534E+00  0.185E+00
  14.300  0.531E+00  0.191E+00  0.520E+00  0.189E+00
  14.320  0.517E+00  0.198E+00  0.505E+00  0.197E+00
  14.340  0.501E+00  0.210E+00  0.490E+00  0.208E+00
  14.360  0.485E+00  0.226E+00  0.474E+00  0.224E+00
  14.380  0.468E+00  0.246E+00  0.458E+00  0.244E+00
  14.400  0.452E+00  0.270E+00  0.443E+00  0.267E+00
  14.420  0.439E+00  0.296E+00  0.430E+00  0.293E+00
  14.440  0.431E+00  0.322E+00  0.421E+00  0.320E+00
  14.460  0.430E+00  0.349E+00  0.420E+00  0.346E+00
  14.480  0.440E+00  0.373E+00  0.429E+00  0.370E+00
  14.500  0.463E+00  0.394E+00  0.451E+00  0.391E+00
  14.520  0.499E+00  0.412E+00  0.486E+00  0.409E+00
  14.540  0.551E+00  0.426E+00  0.537E+00  0.423E+00
  14.560  0.617E+00  0.436E+00  0.604E+00  0.432E+00
  14.580  0.698E+00  0.441E+00  0.684E+00  0.438E+00
  14.600  0.790E+00  0.442E+00  0.777E+00  0.439E+00
  14.620  0.890E+00  0.439E+00  0.879E+00  0.436E+00
  14.640  0.994E+00  0.432E+00  0.985E+00  0.428E+00
  14.660  0.110E+01  0.421E+00  0.109E+01  0.417E+00
  14.680  0.119E+01  0.406E+00  0.119E+01  0.402E+00
  14.700  0.128E+01  0.388E+00  0.128E+01  0.384E+00
  14.720  0.135E+01  0.368E+00  0.136E+01  0.364E+00
  14.740  0.141E+01  0.347E+00  0.141E+01  0.344E+00
  14.760  0.144E+01  0.328E+00  0.146E+01  0.325E+00
  14.780  0.147E+01  0.311E+00  0.148E+01  0.308E+00
  14.800  0.147E+01  0.297E+00  0.149E+01  0.294E+00
  14.820  0.147E+01  0.288E+00  0.148E+01  0.285E+00
  14.840  0.146E+01  0.282E+00  0.147E+01  0.280E+00
  14.860  0.144E+01  0.281E+00  0.145E+01  0.278E+00
  14.880  0.141E+01  0.283E+00  0.143E+01  0.280E+00
  14.900  0.138E+01  0.287E+00  0.140E+01  0.284E+00
  14.920  0.135E+01  0.294E+00  0.136E+01  0.291E+00
  14.940  0.131E+01  0.303E+00  0.132E+01  0.300E+00
  14.960  0.127E+01  0.314E+00  0.128E+01  0.311E+00
  14.980  0.122E+01  0.328E+00  0.124E+01  0.325E+00
  15.000  0.118E+01  0.345E+00  0.119E+01  0.341E+00
  15.020  0.113E+01  0.365E+00  0.114E+01  0.360E+00
  15.040  0.109E+01  0.387E+00  0.110E+01  0.382E+00
  15.060  0.106E+01  0.411E+00  0.107E+01  0.405E+00
  15.080  0.103E+01  0.435E+00  0.104E+01  0.428E+00
  15.100  0.101E+01  0.458E+00  0.102E+01  0.451E+00
  15.120  0.100E+01  0.479E+00  0.101E+01  0.472E+00
  15.140  0.998E+00  0.498E+00  0.101E+01  0.490E+00
  15.160  0.100E+01  0.514E+00  0.101E+01  0.505E+00
  15.180  0.101E+01  0.526E+00  0.101E+01  0.517E+00
  15.200  0.102E+01  0.537E+00  0.102E+01  0.527E+00
  15.220  0.104E+01  0.547E+00  0.104E+01  0.536E+00
  15.240  0.106E+01  0.555E+00  0.106E+01  0.545E+00
  15.260  0.109E+01  0.564E+00  0.108E+01  0.553E+00
  15.280  0.112E+01  0.573E+00  0.111E+01  0.561E+00
  15.300  0.116E+01  0.581E+00  0.115E+01  0.570E+00
  15.320  0.120E+01  0.589E+00  0.118E+01  0.577E+00
  15.340  0.123E+01  0.596E+00  0.121E+01  0.583E+00
  15.360  0.127E+01  0.601E+00  0.124E+01  0.588E+00
  15.380  0.130E+01  0.604E+00  0.127E+01  0.592E+00
  15.400  0.133E+01  0.607E+00  0.129E+01  0.594E+00
  15.420  0.136E+01  0.608E+00  0.132E+01  0.595E+00
  15.440  0.138E+01  0.609E+00  0.134E+01  0.596E+00
  15.460  0.140E+01  0.610E+00  0.135E+01  0.596E+00
  15.480  0.141E+01  0.610E+00  0.136E+01  0.597E+00
  15.500  0.142E+01  0.610E+00  0.137E+01  0.596E+00
  15.520  0.142E+01  0.608E+00  0.137E+01  0.594E+00
  15.540  0.142E+01  0.603E+00  0.136E+01  0.590E+00
  15.560  0.141E+01  0.596E+00  0.135E+01  0.583E+00
  15.580  0.139E+01  0.586E+00  0.133E+01  0.572E+00
  15.600  0.137E+01  0.573E+00  0.131E+01  0.560E+00
  15.620  0.135E+01  0.559E+00  0.129E+01  0.546E+00
  15.640  0.132E+01  0.544E+00  0.127E+01  0.531E+00
  15.660  0.129E+01  0.529E+00  0.124E+01  0.516E+00
  15.680  0.125E+01  0.514E+00  0.120E+01  0.501E+00
  15.700  0.120E+01  0.499E+00  0.116E+01  0.487E+00
  15.720  0.115E+01  0.484E+00  0.111E+01  0.472E+00
  15.740  0.108E+01  0.468E+00  0.105E+01  0.456E+00
  15.760  0.101E+01  0.450E+00  0.985E+00  0.438E+00
  15.780  0.932E+00  0.431E+00  0.914E+00  0.419E+00
  15.800  0.855E+00  0.411E+00  0.840E+00  0.399E+00
  15.820  0.780E+00  0.390E+00  0.768E+00  0.378E+00
  15.840  0.710E+00  0.369E+00  0.700E+00  0.357E+00
  15.860  0.647E+00  0.349E+00  0.639E+00  0.338E+00
  15.880  0.594E+00  0.333E+00  0.585E+00  0.322E+00
  15.900  0.550E+00  0.319E+00  0.540E+00  0.308E+00
  15.920  0.515E+00  0.310E+00  0.504E+00  0.299E+00
  15.940  0.488E+00  0.304E+00  0.475E+00  0.293E+00
  15.960  0.468E+00  0.302E+00  0.452E+00  0.291E+00
  15.980  0.454E+00  0.302E+00  0.435E+00  0.292E+00
  16.000  0.442E+00  0.306E+00  0.421E+00  0.295E+00
  16.020  0.433E+00  0.312E+00  0.410E+00  0.301E+00
  16.040  0.424E+00  0.321E+00  0.401E+00  0.310E+00
  16.060  0.415E+00  0.334E+00  0.392E+00  0.322E+00
  16.080  0.407E+00  0.351E+00  0.383E+00  0.339E+00
  16.100  0.398E+00  0.374E+00  0.375E+00  0.361E+00
  16.120  0.390E+00  0.403E+00  0.367E+00  0.390E+00
  16.140  0.384E+00  0.439E+00  0.361E+00  0.425E+00
  16.160  0.380E+00  0.482E+00  0.358E+00  0.466E+00
  16.180  0.379E+00  0.531E+00  0.357E+00  0.515E+00
  16.200  0.383E+00  0.586E+00  0.360E+00  0.568E+00
  16.220  0.391E+00  0.644E+00  0.369E+00  0.626E+00
  16.240  0.404E+00  0.704E+00  0.382E+00  0.687E+00
  16.260  0.423E+00  0.766E+00  0.402E+00  0.749E+00
  16.280  0.447E+00  0.827E+00  0.427E+00  0.813E+00
  16.300  0.476E+00  0.887E+00  0.457E+00  0.876E+00
  16.320  0.509E+00  0.946E+00  0.493E+00  0.939E+00
  16.340  0.545E+00  0.100E+01  0.532E+00  0.100E+01
  16.360  0.584E+00  0.106E+01  0.573E+00  0.106E+01
  16.380  0.622E+00  0.111E+01  0.614E+00  0.112E+01
  16.400  0.658E+00  0.116E+01  0.653E+00  0.118E+01
  16.420  0.690E+00  0.121E+01  0.687E+00  0.123E+01
  16.440  0.716E+00  0.125E+01  0.715E+00  0.127E+01
  16.460  0.735E+00  0.127E+01  0.736E+00  0.130E+01
  16.480  0.747E+00  0.129E+01  0.748E+00  0.132E+01
  16.500  0.752E+00  0.130E+01  0.754E+00  0.132E+01
  16.520  0.753E+00  0.129E+01  0.754E+00  0.132E+01
  16.540  0.752E+00  0.128E+01  0.753E+00  0.130E+01
  16.560  0.753E+00  0.126E+01  0.753E+00  0.129E+01
  16.580  0.758E+00  0.125E+01  0.758E+00  0.127E+01
  16.600  0.770E+00  0.124E+01  0.769E+00  0.126E+01
  16.620  0.790E+00  0.123E+01  0.789E+00  0.125E+01
  16.640  0.821E+00  0.123E+01  0.819E+00  0.125E+01
  16.660  0.861E+00  0.124E+01  0.859E+00  0.125E+01
  16.680  0.911E+00  0.125E+01  0.908E+00  0.125E+01
  16.700  0.970E+00  0.125E+01  0.967E+00  0.126E+01
  16.720  0.104E+01  0.125E+01  0.103E+01  0.125E+01
  16.740  0.111E+01  0.125E+01  0.111E+01  0.124E+01
  16.760  0.119E+01  0.123E+01  0.119E+01  0.122E+01
  16.780  0.128E+01  0.121E+01  0.127E+01  0.119E+01
  16.800  0.137E+01  0.118E+01  0.136E+01  0.116E+01
  16.820  0.146E+01  0.115E+01  0.145E+01  0.112E+01
  16.840  0.155E+01  0.112E+01  0.154E+01  0.109E+01
  16.860  0.164E+01  0.110E+01  0.163E+01  0.106E+01
  16.880  0.172E+01  0.107E+01  0.172E+01  0.104E+01
  16.900  0.180E+01  0.106E+01  0.180E+01  0.102E+01
  16.920  0.188E+01  0.105E+01  0.188E+01  0.101E+01
  16.940  0.195E+01  0.105E+01  0.195E+01  0.101E+01
  16.960  0.201E+01  0.107E+01  0.202E+01  0.102E+01
  16.980  0.207E+01  0.109E+01  0.208E+01  0.104E+01
  17.000  0.213E+01  0.111E+01  0.214E+01  0.106E+01
  17.020  0.218E+01  0.115E+01  0.219E+01  0.109E+01
  17.040  0.223E+01  0.118E+01  0.224E+01  0.112E+01
  17.060  0.227E+01  0.121E+01  0.228E+01  0.115E+01
  17.080  0.231E+01  0.123E+01  0.233E+01  0.117E+01
  17.100  0.235E+01  0.125E+01  0.237E+01  0.119E+01
  17.120  0.238E+01  0.126E+01  0.240E+01  0.119E+01
  17.140  0.241E+01  0.126E+01  0.242E+01  0.119E+01
  17.160  0.242E+01  0.125E+01  0.244E+01  0.118E+01
  17.180  0.242E+01  0.123E+01  0.244E+01  0.116E+01
  17.200  0.241E+01  0.121E+01  0.243E+01  0.114E+01
  17.220  0.237E+01  0.118E+01  0.239E+01  0.112E+01
  17.240  0.232E+01  0.116E+01  0.233E+01  0.110E+01
  17.260  0.224E+01  0.114E+01  0.225E+01  0.107E+01
  17.280  0.213E+01  0.112E+01  0.215E+01  0.106E+01
  17.300  0.201E+01  0.110E+01  0.202E+01  0.104E+01
  17.320  0.187E+01  0.109E+01  0.188E+01  0.103E+01
  17.340  0.172E+01  0.108E+01  0.173E+01  0.102E+01
  17.360  0.157E+01  0.106E+01  0.157E+01  0.101E+01
  17.380  0.142E+01  0.105E+01  0.142E+01  0.995E+00
  17.400  0.129E+01  0.104E+01  0.129E+01  0.981E+00
  17.420  0.117E+01  0.102E+01  0.117E+01  0.966E+00
  17.440  0.107E+01  0.999E+00  0.107E+01  0.949E+00
  17.460  0.999E+00  0.978E+00  0.996E+00  0.930E+00
  17.480  0.950E+00  0.957E+00  0.946E+00  0.912E+00
  17.500  0.924E+00  0.937E+00  0.919E+00  0.894E+00
  17.520  0.918E+00  0.918E+00  0.912E+00  0.878E+00
  17.540  0.929E+00  0.900E+00  0.923E+00  0.862E+00
  17.560  0.953E+00  0.882E+00  0.946E+00  0.845E+00
  17.580  0.985E+00  0.862E+00  0.977E+00  0.827E+00
  17.600  0.102E+01  0.840E+00  0.101E+01  0.806E+00
  17.620  0.105E+01  0.813E+00  0.104E+01  0.781E+00
  17.640  0.107E+01  0.780E+00  0.106E+01  0.751E+00
  17.660  0.109E+01  0.741E+00  0.108E+01  0.715E+00
  17.680  0.108E+01  0.698E+00  0.107E+01  0.674E+00
  17.700  0.106E+01  0.650E+00  0.105E+01  0.630E+00
  17.720  0.103E+01  0.601E+00  0.102E+01  0.584E+00
  17.740  0.980E+00  0.552E+00  0.971E+00  0.537E+00
  17.760  0.922E+00  0.506E+00  0.913E+00  0.492E+00
  17.780  0.857E+00  0.464E+00  0.849E+00  0.451E+00
  17.800  0.790E+00  0.427E+00  0.783E+00  0.414E+00
  17.820  0.726E+00  0.397E+00  0.720E+00  0.381E+00
  17.840  0.669E+00  0.372E+00  0.664E+00  0.353E+00
  17.860  0.623E+00  0.351E+00  0.618E+00  0.329E+00
  17.880  0.589E+00  0.333E+00  0.585E+00  0.308E+00
  17.900  0.570E+00  0.316E+00  0.565E+00  0.288E+00
  17.920  0.563E+00  0.300E+00  0.559E+00  0.269E+00
  17.940  0.569E+00  0.283E+00  0.564E+00  0.250E+00
  17.960  0.586E+00  0.265E+00  0.580E+00  0.231E+00
  17.980  0.611E+00  0.246E+00  0.604E+00  0.212E+00
  18.000  0.642E+00  0.228E+00  0.633E+00  0.196E+00
  18.020  0.675E+00  0.211E+00  0.663E+00  0.181E+00
  18.040  0.707E+00  0.196E+00  0.693E+00  0.169E+00
  18.060  0.735E+00  0.184E+00  0.719E+00  0.160E+00
  18.080  0.756E+00  0.176E+00  0.738E+00  0.155E+00
  18.100  0.769E+00  0.171E+00  0.749E+00  0.154E+00
  18.120  0.771E+00  0.171E+00  0.749E+00  0.157E+00
  18.140  0.762E+00  0.176E+00  0.739E+00  0.163E+00
  18.160  0.742E+00  0.184E+00  0.718E+00  0.173E+00
  18.180  0.712E+00  0.195E+00  0.689E+00  0.186E+00
  18.200  0.675E+00  0.210E+00  0.652E+00  0.200E+00
  18.220  0.632E+00  0.226E+00  0.611E+00  0.217E+00
  18.240  0.587E+00  0.244E+00  0.568E+00  0.235E+00
  18.260  0.543E+00  0.263E+00  0.526E+00  0.253E+00
  18.280  0.502E+00  0.281E+00  0.487E+00  0.272E+00
  18.300  0.467E+00  0.299E+00  0.453E+00  0.290E+00
  18.320  0.438E+00  0.316E+00  0.424E+00  0.307E+00
  18.340  0.415E+00  0.330E+00  0.402E+00  0.322E+00
  18.360  0.398E+00  0.343E+00  0.385E+00  0.335E+00
  18.380  0.385E+00  0.353E+00  0.371E+00  0.346E+00
  18.400  0.374E+00  0.362E+00  0.359E+00  0.355E+00
  18.420  0.363E+00  0.368E+00  0.346E+00  0.361E+00
  18.440  0.349E+00  0.373E+00  0.332E+00  0.366E+00
  18.460  0.332E+00  0.376E+00  0.313E+00  0.368E+00
  18.480  0.311E+00  0.378E+00  0.292E+00  0.369E+00
  18.500  0.286E+00  0.378E+00  0.266E+00  0.369E+00
  18.520  0.259E+00  0.378E+00  0.239E+00  0.369E+00
  18.540  0.231E+00  0.377E+00  0.211E+00  0.368E+00
  18.560  0.204E+00  0.374E+00  0.184E+00  0.366E+00
  18.580  0.179E+00  0.371E+00  0.160E+00  0.363E+00
  18.600  0.158E+00  0.367E+00  0.140E+00  0.360E+00
  18.620  0.142E+00  0.362E+00  0.124E+00  0.355E+00
  18.640  0.130E+00  0.356E+00  0.112E+00  0.350E+00
  18.660  0.122E+00  0.349E+00  0.103E+00  0.344E+00
  18.680  0.118E+00  0.344E+00  0.980E-01  0.340E+00
  18.700  0.115E+00  0.341E+00  0.944E-01  0.337E+00
  18.720  0.113E+00  0.340E+00  0.917E-01  0.337E+00
  18.740  0.111E+00  0.344E+00  0.892E-01  0.341E+00
  18.760  0.108E+00  0.354E+00  0.866E-01  0.351E+00
  18.780  0.105E+00  0.369E+00  0.836E-01  0.367E+00
  18.800  0.102E+00  0.391E+00  0.803E-01  0.389E+00
  18.820  0.983E-01  0.420E+00  0.771E-01  0.418E+00
  18.840  0.949E-01  0.456E+00  0.741E-01  0.454E+00
  18.860  0.920E-01  0.498E+00  0.717E-01  0.495E+00
  18.880  0.899E-01  0.546E+00  0.700E-01  0.543E+00
  18.900  0.887E-01  0.597E+00  0.691E-01  0.594E+00
  18.920  0.886E-01  0.651E+00  0.690E-01  0.648E+00
  18.940  0.895E-01  0.705E+00  0.696E-01  0.702E+00
  18.960  0.914E-01  0.758E+00  0.709E-01  0.755E+00
  18.980  0.944E-01  0.807E+00  0.727E-01  0.804E+00
  19.000  0.985E-01  0.850E+00  0.753E-01  0.847E+00
  19.020  0.104E+00  0.884E+00  0.787E-01  0.883E+00
  19.040  0.111E+00  0.909E+00  0.833E-01  0.909E+00
  19.060  0.120E+00  0.926E+00  0.891E-01  0.925E+00
  19.080  0.131E+00  0.933E+00  0.962E-01  0.934E+00
  19.100  0.142E+00  0.935E+00  0.104E+00  0.936E+00
  19.120  0.154E+00  0.932E+00  0.113E+00  0.933E+00
  19.140  0.164E+00  0.928E+00  0.120E+00  0.930E+00
  19.160  0.172E+00  0.926E+00  0.127E+00  0.928E+00
  19.180  0.176E+00  0.927E+00  0.131E+00  0.929E+00
  19.200  0.177E+00  0.932E+00  0.133E+00  0.935E+00
  19.220  0.173E+00  0.944E+00  0.132E+00  0.947E+00
  19.240  0.167E+00  0.961E+00  0.128E+00  0.964E+00
  19.260  0.159E+00  0.982E+00  0.125E+00  0.986E+00
  19.280  0.152E+00  0.101E+01  0.121E+00  0.101E+01
  19.300  0.147E+00  0.103E+01  0.119E+00  0.104E+01
  19.320  0.146E+00  0.106E+01  0.121E+00  0.107E+01
  19.340  0.150E+00  0.108E+01  0.126E+00  0.109E+01
  19.360  0.159E+00  0.111E+01  0.134E+00  0.111E+01
  19.380  0.171E+00  0.112E+01  0.146E+00  0.113E+01
  19.400  0.186E+00  0.114E+01  0.159E+00  0.114E+01
  19.420  0.202E+00  0.115E+01  0.173E+00  0.116E+01
  19.440  0.217E+00  0.117E+01  0.186E+00  0.117E+01
  19.460  0.229E+00  0.118E+01  0.195E+00  0.119E+01
  19.480  0.237E+00  0.121E+01  0.202E+00  0.121E+01
  19.500  0.241E+00  0.123E+01  0.204E+00  0.124E+01
  19.520  0.241E+00  0.127E+01  0.202E+00  0.127E+01
  19.540  0.237E+00  0.130E+01  0.197E+00  0.131E+01
  19.560  0.230E+00  0.133E+01  0.189E+00  0.134E+01
  19.580  0.220E+00  0.136E+01  0.179E+00  0.137E+01
  19.600  0.207E+00  0.139E+01  0.166E+00  0.140E+01
  19.620  0.193E+00  0.140E+01  0.153E+00  0.141E+01
  19.640  0.178E+00  0.141E+01  0.139E+00  0.142E+01
  19.660  0.161E+00  0.141E+01  0.124E+00  0.142E+01
  19.680  0.144E+00  0.140E+01  0.110E+00  0.141E+01
  19.700  0.128E+00  0.139E+01  0.958E-01  0.140E+01
  19.720  0.112E+00  0.138E+01  0.829E-01  0.139E+01
  19.740  0.979E-01  0.137E+01  0.714E-01  0.139E+01
  19.760  0.859E-01  0.138E+01  0.618E-01  0.139E+01
  19.780  0.766E-01  0.139E+01  0.544E-01  0.140E+01
  19.800  0.705E-01  0.142E+01  0.496E-01  0.143E+01
  19.820  0.678E-01  0.147E+01  0.473E-01  0.148E+01
  19.840  0.684E-01  0.154E+01  0.477E-01  0.155E+01
  19.860  0.723E-01  0.163E+01  0.503E-01  0.164E+01
  19.880  0.790E-01  0.174E+01  0.550E-01  0.175E+01
  19.900  0.878E-01  0.186E+01  0.612E-01  0.187E+01
  19.920  0.980E-01  0.199E+01  0.684E-01  0.200E+01
  19.940  0.109E+00  0.212E+01  0.761E-01  0.213E+01
  19.960  0.120E+00  0.223E+01  0.837E-01  0.224E+01
  19.980  0.130E+00  0.232E+01  0.909E-01  0.233E+01
  20.000  0.138E+00  0.238E+01  0.971E-01  0.238E+01
  20.020  0.145E+00  0.239E+01  0.102E+00  0.239E+01
  20.040  0.149E+00  0.235E+01  0.105E+00  0.235E+01
  20.060  0.151E+00  0.227E+01  0.107E+00  0.227E+01
  20.080  0.149E+00  0.215E+01  0.107E+00  0.215E+01
  20.100  0.146E+00  0.200E+01  0.105E+00  0.199E+01
  20.120  0.141E+00  0.183E+01  0.101E+00  0.182E+01
  20.140  0.134E+00  0.165E+01  0.966E-01  0.165E+01
  20.160  0.127E+00  0.149E+01  0.911E-01  0.148E+01
  20.180  0.119E+00  0.134E+01  0.854E-01  0.133E+01
  20.200  0.113E+00  0.121E+01  0.799E-01  0.120E+01
  20.220  0.107E+00  0.111E+01  0.751E-01  0.110E+01
  20.240  0.104E+00  0.103E+01  0.713E-01  0.103E+01
  20.260  0.101E+00  0.982E+00  0.686E-01  0.975E+00
  20.280  0.101E+00  0.950E+00  0.672E-01  0.943E+00
  20.300  0.101E+00  0.933E+00  0.669E-01  0.926E+00
  20.320  0.103E+00  0.925E+00  0.677E-01  0.917E+00
  20.340  0.106E+00  0.923E+00  0.691E-01  0.914E+00
  20.360  0.108E+00  0.921E+00  0.709E-01  0.912E+00
  20.380  0.111E+00  0.919E+00  0.727E-01  0.909E+00
  20.400  0.113E+00  0.914E+00  0.743E-01  0.902E+00
  20.420  0.114E+00  0.904E+00  0.758E-01  0.891E+00
  20.440  0.115E+00  0.889E+00  0.773E-01  0.875E+00
  20.460  0.116E+00  0.867E+00  0.792E-01  0.852E+00
  20.480  0.118E+00  0.839E+00  0.819E-01  0.823E+00
  20.500  0.121E+00  0.804E+00  0.858E-01  0.787E+00
  20.520  0.127E+00  0.762E+00  0.911E-01  0.745E+00
  20.540  0.134E+00  0.714E+00  0.978E-01  0.697E+00
  20.560  0.142E+00  0.662E+00  0.106E+00  0.645E+00
  20.580  0.151E+00  0.606E+00  0.114E+00  0.590E+00
  20.600  0.161E+00  0.549E+00  0.122E+00  0.534E+00
  20.620  0.169E+00  0.494E+00  0.130E+00  0.480E+00
  20.640  0.176E+00  0.441E+00  0.136E+00  0.428E+00
  20.660  0.181E+00  0.393E+00  0.141E+00  0.381E+00
  20.680  0.185E+00  0.351E+00  0.144E+00  0.340E+00
  20.700  0.186E+00  0.315E+00  0.146E+00  0.304E+00
  20.720  0.186E+00  0.285E+00  0.147E+00  0.275E+00
  20.740  0.185E+00  0.261E+00  0.147E+00  0.250E+00
  20.760  0.182E+00  0.242E+00  0.147E+00  0.231E+00
  20.780  0.179E+00  0.228E+00  0.146E+00  0.216E+00
  20.800  0.174E+00  0.217E+00  0.144E+00  0.205E+00
  20.820  0.169E+00  0.210E+00  0.141E+00  0.196E+00
  20.840  0.163E+00  0.204E+00  0.137E+00  0.190E+00
  20.860  0.156E+00  0.199E+00  0.131E+00  0.184E+00
  20.880  0.149E+00  0.195E+00  0.125E+00  0.179E+00
  20.900  0.142E+00  0.191E+00  0.118E+00  0.174E+00
  20.920  0.135E+00  0.187E+00  0.111E+00  0.170E+00
  20.940  0.128E+00  0.182E+00  0.103E+00  0.165E+00
  20.960  0.123E+00  0.178E+00  0.958E-01  0.160E+00
  20.980  0.117E+00  0.175E+00  0.891E-01  0.157E+00
  21.000  0.113E+00  0.174E+00  0.832E-01  0.155E+00
  21.020  0.110E+00  0.175E+00  0.781E-01  0.156E+00
  21.040  0.107E+00  0.179E+00  0.741E-01  0.159E+00
  21.060  0.107E+00  0.185E+00  0.714E-01  0.165E+00
  21.080  0.108E+00  0.193E+00  0.701E-01  0.172E+00
  21.100  0.110E+00  0.203E+00  0.703E-01  0.181E+00
  21.120  0.115E+00  0.212E+00  0.718E-01  0.190E+00
  21.140  0.120E+00  0.222E+00  0.744E-01  0.198E+00
  21.160  0.127E+00  0.230E+00  0.778E-01  0.206E+00
  21.180  0.133E+00  0.237E+00  0.815E-01  0.212E+00
  21.200  0.138E+00  0.243E+00  0.849E-01  0.217E+00
  21.220  0.142E+00  0.247E+00  0.875E-01  0.221E+00
  21.240  0.143E+00  0.249E+00  0.889E-01  0.224E+00
  21.260  0.141E+00  0.249E+00  0.890E-01  0.225E+00
  21.280  0.137E+00  0.247E+00  0.875E-01  0.224E+00
  21.300  0.130E+00  0.244E+00  0.848E-01  0.222E+00
  21.320  0.121E+00  0.240E+00  0.808E-01  0.219E+00
  21.340  0.111E+00  0.234E+00  0.759E-01  0.214E+00
  21.360  0.101E+00  0.227E+00  0.703E-01  0.208E+00
  21.380  0.901E-01  0.220E+00  0.645E-01  0.201E+00
  21.400  0.803E-01  0.212E+00  0.587E-01  0.193E+00
  21.420  0.719E-01  0.204E+00  0.532E-01  0.185E+00
  21.440  0.651E-01  0.196E+00  0.484E-01  0.177E+00
  21.460  0.604E-01  0.188E+00  0.445E-01  0.168E+00
  21.480  0.580E-01  0.181E+00  0.417E-01  0.160E+00
  21.500  0.581E-01  0.174E+00  0.403E-01  0.153E+00
  21.520  0.607E-01  0.169E+00  0.404E-01  0.148E+00
  21.540  0.662E-01  0.167E+00  0.422E-01  0.145E+00
  21.560  0.746E-01  0.169E+00  0.457E-01  0.145E+00
  21.580  0.860E-01  0.175E+00  0.510E-01  0.148E+00
  21.600  0.100E+00  0.184E+00  0.580E-01  0.155E+00
  21.620  0.117E+00  0.197E+00  0.661E-01  0.164E+00
  21.640  0.134E+00  0.210E+00  0.750E-01  0.175E+00
  21.660  0.151E+00  0.224E+00  0.836E-01  0.184E+00
  21.680  0.166E+00  0.234E+00  0.911E-01  0.192E+00
  21.700  0.177E+00  0.242E+00  0.966E-01  0.197E+00
  21.720  0.182E+00  0.244E+00  0.993E-01  0.198E+00
  21.740  0.182E+00  0.241E+00  0.988E-01  0.194E+00
  21.760  0.176E+00  0.233E+00  0.953E-01  0.187E+00
  21.780  0.164E+00  0.222E+00  0.891E-01  0.178E+00
  21.800  0.149E+00  0.207E+00  0.811E-01  0.166E+00
  21.820  0.131E+00  0.192E+00  0.722E-01  0.153E+00
  21.840  0.113E+00  0.176E+00  0.633E-01  0.141E+00
  21.860  0.968E-01  0.160E+00  0.551E-01  0.128E+00
  21.880  0.823E-01  0.146E+00  0.481E-01  0.117E+00
  21.900  0.702E-01  0.133E+00  0.426E-01  0.107E+00
  21.920  0.608E-01  0.121E+00  0.385E-01  0.975E-01
  21.940  0.537E-01  0.112E+00  0.358E-01  0.898E-01
  21.960  0.486E-01  0.104E+00  0.342E-01  0.837E-01
  21.980  0.451E-01  0.992E-01  0.336E-01  0.794E-01
  22.000  0.429E-01  0.963E-01  0.337E-01  0.770E-01
  22.020  0.416E-01  0.958E-01  0.344E-01  0.766E-01
  22.040  0.410E-01  0.972E-01  0.354E-01  0.780E-01
  22.060  0.410E-01  0.100E+00  0.366E-01  0.809E-01
  22.080  0.414E-01  0.104E+00  0.379E-01  0.850E-01
  22.100  0.424E-01  0.109E+00  0.395E-01  0.897E-01
  22.120  0.442E-01  0.113E+00  0.415E-01  0.945E-01
  22.140  0.473E-01  0.117E+00  0.443E-01  0.991E-01
  22.160  0.523E-01  0.121E+00  0.486E-01  0.103E+00
  22.180  0.596E-01  0.124E+00  0.546E-01  0.106E+00
  22.200  0.696E-01  0.126E+00  0.627E-01  0.108E+00
  22.220  0.825E-01  0.128E+00  0.730E-01  0.110E+00
  22.240  0.979E-01  0.130E+00  0.851E-01  0.110E+00
  22.260  0.115E+00  0.131E+00  0.983E-01  0.111E+00
  22.280  0.133E+00  0.133E+00  0.112E+00  0.112E+00
  22.300  0.149E+00  0.136E+00  0.124E+00  0.113E+00
  22.320  0.163E+00  0.139E+00  0.134E+00  0.116E+00
  22.340  0.173E+00  0.145E+00  0.140E+00  0.120E+00
  22.360  0.178E+00  0.152E+00  0.142E+00  0.127E+00
  22.380  0.178E+00  0.162E+00  0.140E+00  0.136E+00
  22.400  0.173E+00  0.174E+00  0.135E+00  0.146E+00
  22.420  0.165E+00  0.188E+00  0.126E+00  0.158E+00
  22.440  0.154E+00  0.203E+00  0.116E+00  0.171E+00
  22.460  0.143E+00  0.218E+00  0.105E+00  0.183E+00
  22.480  0.132E+00  0.232E+00  0.942E-01  0.194E+00
  22.500  0.123E+00  0.243E+00  0.853E-01  0.202E+00
  22.520  0.117E+00  0.251E+00  0.782E-01  0.207E+00
  22.540  0.112E+00  0.255E+00  0.727E-01  0.208E+00
  22.560  0.108E+00  0.255E+00  0.685E-01  0.206E+00
  22.580  0.104E+00  0.250E+00  0.648E-01  0.201E+00
  22.600  0.100E+00  0.243E+00  0.612E-01  0.194E+00
  22.620  0.942E-01  0.233E+00  0.570E-01  0.184E+00
  22.640  0.870E-01  0.221E+00  0.524E-01  0.174E+00
  22.660  0.791E-01  0.207E+00  0.474E-01  0.163E+00
  22.680  0.713E-01  0.193E+00  0.426E-01  0.151E+00
  22.700  0.648E-01  0.178E+00  0.387E-01  0.140E+00
  22.720  0.607E-01  0.163E+00  0.362E-01  0.128E+00
  22.740  0.601E-01  0.147E+00  0.357E-01  0.115E+00
  22.760  0.635E-01  0.133E+00  0.374E-01  0.103E+00
  22.780  0.709E-01  0.118E+00  0.415E-01  0.918E-01
  22.800  0.819E-01  0.105E+00  0.475E-01  0.810E-01
  22.820  0.957E-01  0.945E-01  0.548E-01  0.714E-01
  22.840  0.111E+00  0.860E-01  0.629E-01  0.636E-01
  22.860  0.126E+00  0.803E-01  0.707E-01  0.579E-01
  22.880  0.140E+00  0.777E-01  0.775E-01  0.545E-01
  22.900  0.152E+00  0.783E-01  0.825E-01  0.534E-01
  22.920  0.159E+00  0.820E-01  0.854E-01  0.547E-01
  22.940  0.163E+00  0.884E-01  0.859E-01  0.579E-01
  22.960  0.162E+00  0.971E-01  0.840E-01  0.629E-01
  22.980  0.157E+00  0.107E+00  0.799E-01  0.692E-01
  23.000  0.148E+00  0.118E+00  0.742E-01  0.762E-01
  23.020  0.137E+00  0.129E+00  0.672E-01  0.834E-01
